"Instrument","Resistance"
1,196.3052
1,196.124
1,196.189
1,196.2569
1,196.3403
2,196.3042
2,196.3825
2,196.1669
2,196.3257
2,196.0422
3,196.1303
3,196.2005
3,196.2889
3,196.0343
3,196.1811
4,196.2795
4,196.1748
4,196.1494
4,196.1485
4,195.9885
5,196.2119
5,196.1051
5,196.185
5,196.0052
5,196.209
